OPTIS - Spectrum file v1
Blackbody at 5200.0 K
36
349.999	0.1
362.431	0.017649
376.486	0.1
392.163	0.1
412.153	1.47327
421.313	7.02644
428.299	14.7926
433.603	33.9137
438.376	51.372
440.43	71.8735
444.103	92.9314
445.69	99.5818
448.927	100
450.05	92.6628
454.486	71.6165
459.502	42.8147
467.723	21.4968
479.14	9.04759
484.559	6.56221
490.502	7.12466
496.428	10.7342
508.247	24.6014
521.143	39.3011
531.899	49.5657
542.685	54.2901
555.649	55.9706
568.628	54.881
584.866	50.7489
604.902	43.8522
623.329	34.737
645.549	23.6882
667.758	14.8555
687.784	9.89779
708.344	6.32587
731.059	3.86504
749.445	2.5061
